Wavelength(10nm),Signal_Amplitude(V)
3240,0.0138
3241,0.0137
3242,0.014
3243,0.0138
3244,0.0138
3245,0.0137
3246,0.0137
3247,0.0139
3248,0.0139
3249,0.0138
3250,0.0138
3251,0.0139
3252,0.0138
3253,0.0138
3254,0.0138
3255,0.0137
3256,0.0138
3257,0.0138
3258,0.0138
3259,0.0138
3260,0.0138
3261,0.0138
3262,0.0138
3263,0.0137
3264,0.0137
3265,0.0138
3266,0.0138
3267,0.0138
3268,0.0138
3269,0.0137
3270,0.0138
3271,0.0137
3272,0.0138
3273,0.0137
3274,0.0138
3275,0.0137
3276,0.0139
3277,0.0139
3278,0.0137
3279,0.0137
3280,0.0138
3281,0.0139
3282,0.0137
3283,0.0137
3284,0.0139
3285,0.0139
3286,0.0139
3287,0.0139
3288,0.0138
3289,0.0138
3290,0.0138
3291,0.0137
3292,0.0139
3293,0.0139
3294,0.0138
3295,0.0138
3296,0.0139
3297,0.0138
3298,0.0138
3299,0.0138
3300,0.0138
3301,0.0138
3302,0.014
3303,0.0138
3304,0.0138
3305,0.0138
3306,0.0139
3307,0.014
3308,0.0138
3309,0.0139
3310,0.0139
3311,0.0138
3312,0.014
3313,0.0139
3314,0.0138
3315,0.014
3316,0.0139
3317,0.0138
3318,0.014
3319,0.0139
3320,0.0138
3321,0.0139
3322,0.0139
3323,0.0138
3324,0.0139
3325,0.0139
3326,0.0138
3327,0.014
3328,0.014
3329,0.0139
3330,0.0139
3331,0.0139
3332,0.0139
3333,0.0139
3334,0.0139
3335,0.014
3336,0.0141
3337,0.014
3338,0.014
3339,0.0141
3340,0.0141
3341,0.014
3342,0.014
3343,0.014
3344,0.0139
3345,0.014
3346,0.0141
3347,0.014
3348,0.0141
3349,0.0141
3350,0.0141
3351,0.0142
3352,0.0141
3353,0.0141
3354,0.0141
3355,0.014
3356,0.0141
3357,0.0142
3358,0.014
3359,0.0141
3360,0.0142
3361,0.0141
3362,0.0142
3363,0.0143
3364,0.0142
3365,0.014
3366,0.0144
3367,0.0142
3368,0.0144
3369,0.0142
3370,0.0142
3371,0.0144
3372,0.0142
3373,0.0141
3374,0.0143
3375,0.0145
3376,0.0143
3377,0.0143
3378,0.0143
3379,0.0143
3380,0.0144
3381,0.0145
3382,0.0145
3383,0.0144
3384,0.0144
3385,0.0144
3386,0.0143
3387,0.0142
3388,0.0142
3389,0.0144
3390,0.0144
3391,0.0143
3392,0.0142
3393,0.0143
3394,0.0142
3395,0.0143
3396,0.0144
3397,0.0144
3398,0.0144
3399,0.0144
3400,0.0143
3401,0.0144
3402,0.0143
3403,0.0143
3404,0.0144
3405,0.0143
3406,0.0144
3407,0.0143
3408,0.0144
3409,0.0143
3410,0.0142
3411,0.0144
3412,0.0143
3413,0.0143
3414,0.0142
3415,0.0143
3416,0.014
3417,0.0141
3418,0.0143
3419,0.0142
3420,0.0142
3421,0.0141
3422,0.0142
3423,0.0141
3424,0.0142
3425,0.0142
3426,0.0143
3427,0.0143
3428,0.0141
3429,0.0143
3430,0.0141
3431,0.0141
3432,0.0141
3433,0.0139
3434,0.0141
3435,0.0141
3436,0.014
3437,0.0141
3438,0.0141
3439,0.0141
3440,0.0142
3441,0.0141
3442,0.0141
3443,0.0142
3444,0.0141
3445,0.0142
3446,0.014
3447,0.0141
3448,0.0142
3449,0.014
3450,0.0141
3451,0.0142
3452,0.0142
3453,0.0142
3454,0.0141
3455,0.0141
3456,0.0141
3457,0.014
3458,0.0141
3459,0.0141
3460,0.0141
3461,0.0142
3462,0.0142
3463,0.0142
3464,0.0142
3465,0.014
3466,0.0142
3467,0.014
3468,0.0141
3469,0.0142
3470,0.0141
3471,0.0142
3472,0.0142
3473,0.0142
3474,0.0141
3475,0.0143
3476,0.0142
3477,0.0141
3478,0.0142
3479,0.0141
3480,0.014
3481,0.0141
3482,0.0141
3483,0.0142
3484,0.0142
3485,0.0142
3486,0.0142
3487,0.0142
3488,0.0143
3489,0.0142
3490,0.0142
3491,0.0142
3492,0.0143
3493,0.0143
3494,0.0142
3495,0.0141
3496,0.0142
3497,0.0142
3498,0.0141
3499,0.0142
3500,0.0143
3501,0.0142
3502,0.0142
3503,0.0142
3504,0.0141
3505,0.014
3506,0.0142
3507,0.0143
3508,0.0141
3509,0.0142
3510,0.0142
3511,0.0142
3512,0.0143
3513,0.0142
3514,0.0142
3515,0.0141
3516,0.0142
3517,0.0142
3518,0.0141
3519,0.0143
3520,0.0141
3521,0.0143
3522,0.0142
3523,0.0142
3524,0.0142
3525,0.0142
3526,0.0143
3527,0.0144
3528,0.0142
3529,0.0142
3530,0.0143
3531,0.0143
3532,0.0142
3533,0.0142
3534,0.0142
3535,0.0141
3536,0.0141
3537,0.0142
3538,0.0142
3539,0.0141
3540,0.0142
3541,0.0141
3542,0.0141
3543,0.0144
3544,0.0142
3545,0.0142
3546,0.0143
3547,0.0142
3548,0.0142
3549,0.0143
3550,0.0142
3551,0.0141
3552,0.0144
3553,0.0142
3554,0.0142
3555,0.0141
3556,0.0143
3557,0.0142
3558,0.0143
3559,0.0142
3560,0.0142
3561,0.0142
3562,0.0141
3563,0.0143
3564,0.0142
3565,0.0143
3566,0.0142
3567,0.0142
3568,0.0142
3569,0.0142
3570,0.0143
3571,0.0143
3572,0.0143
3573,0.0142
3574,0.0143
3575,0.0142
3576,0.0142
3577,0.0144
3578,0.0141
3579,0.0144
3580,0.0142
3581,0.0141
3582,0.0142
3583,0.0144
3584,0.0143
3585,0.0145
3586,0.0143
3587,0.0142
3588,0.0143
3589,0.0142
3590,0.0142
3591,0.0144
3592,0.0143
3593,0.0143
3594,0.0142
3595,0.0143
3596,0.0144
3597,0.0142
3598,0.0142
3599,0.0143
3600,0.0144
3601,0.0145
3602,0.0142
3603,0.0142
3604,0.0142
3605,0.0143
3606,0.0145
3607,0.0144
3608,0.0142
3609,0.0143
3610,0.0144
3611,0.0144
3612,0.0143
3613,0.0144
3614,0.0142
3615,0.0142
3616,0.0143
3617,0.0144
3618,0.0142
3619,0.0143
3620,0.0144
3621,0.0142
3622,0.0142
3623,0.0144
3624,0.0143
3625,0.0143
3626,0.0143
3627,0.0143
3628,0.0143
3629,0.0144
3630,0.0143
3631,0.0143
3632,0.0143
3633,0.0143
3634,0.0143
3635,0.0144
3636,0.0143
3637,0.0143
3638,0.0144
3639,0.0143
3640,0.0144
3641,0.0142
3642,0.0144
3643,0.0144
3644,0.0144
3645,0.0145
3646,0.0143
3647,0.0143
3648,0.0143
3649,0.0143
3650,0.0143
3651,0.0144
3652,0.0145
3653,0.0143
3654,0.0143
3655,0.0143
3656,0.0142
3657,0.0144
3658,0.0143
3659,0.0142
3660,0.0142
3661,0.0144
3662,0.0144
3663,0.0144
3664,0.0143
3665,0.0144
3666,0.0143
3667,0.0142
3668,0.0145
3669,0.0143
3670,0.0144
3671,0.0143
3672,0.0143
3673,0.0145
3674,0.0144
3675,0.0144
3676,0.0145
3677,0.0143
3678,0.0143
3679,0.0142
3680,0.0143
3681,0.0145
3682,0.0143
3683,0.0144
3684,0.0143
3685,0.0142
3686,0.0144
3687,0.0144
3688,0.0143
3689,0.0144
3690,0.0144
3691,0.0144
3692,0.0143
3693,0.0145
3694,0.0146
3695,0.0143
3696,0.0144
3697,0.0144
3698,0.0143
3699,0.0144
3700,0.0145
3701,0.0146
3702,0.0143
3703,0.0143
3704,0.0144
3705,0.0143
3706,0.0144
3707,0.0144
3708,0.0144
3709,0.0144
3710,0.0143
3711,0.0142
3712,0.0144
3713,0.0144
3714,0.0144
3715,0.0143
3716,0.0143
3717,0.0143
3718,0.0144
3719,0.0144
3720,0.0144
3721,0.0143
3722,0.0144
3723,0.0145
3724,0.0144
3725,0.0144
3726,0.0145
3727,0.0145
3728,0.0144
3729,0.0144
3730,0.0143
3731,0.0142
3732,0.0144
3733,0.0143
3734,0.0143
3735,0.0144
3736,0.0145
3737,0.0143
3738,0.0143
3739,0.0144
3740,0.0144
3741,0.0144
3742,0.0142
3743,0.0144
3744,0.0145
3745,0.0143
3746,0.0144
3747,0.0146
3748,0.0144
3749,0.0143
3750,0.0145
3751,0.0144
3752,0.0144
3753,0.0145
3754,0.0144
3755,0.0145
3756,0.0145
3757,0.0144
3758,0.0145
3759,0.0145
3760,0.0144
3761,0.0145
3762,0.0144
3763,0.0144
3764,0.0145
3765,0.0145
3766,0.0145
3767,0.0145
3768,0.0145
3769,0.0145
3770,0.0145
3771,0.0145
3772,0.0145
3773,0.0146
3774,0.0145
3775,0.0145
3776,0.0145
3777,0.0145
3778,0.0144
3779,0.0144
3780,0.0144
3781,0.0144
3782,0.0143
3783,0.0144
3784,0.0145
3785,0.0145
3786,0.0143
3787,0.0145
3788,0.0144
3789,0.0144
3790,0.0144
3791,0.0143
3792,0.0144
3793,0.0144
3794,0.0144
3795,0.0145
3796,0.0145
3797,0.0145
3798,0.0145
3799,0.0145
3800,0.0144
3801,0.0145
3802,0.0145
3803,0.0145
3804,0.0145
3805,0.0144
3806,0.0144
3807,0.0144
3808,0.0144
3809,0.0146
3810,0.0145
3811,0.0145
3812,0.0146
3813,0.0144
3814,0.0145
3815,0.0145
3816,0.0144
3817,0.0143
3818,0.0143
3819,0.0145
3820,0.0145
3821,0.0145
3822,0.0144
3823,0.0144
3824,0.0144
3825,0.0146
3826,0.0144
3827,0.0146
3828,0.0144
3829,0.0145
3830,0.0144
3831,0.0145
3832,0.0142
3833,0.0145
3834,0.0143
3835,0.0144
3836,0.0143
3837,0.0145
3838,0.0144
3839,0.0144
3840,0.0145
3841,0.0145
3842,0.0144
3843,0.0145
3844,0.0145
3845,0.0144
3846,0.0143
3847,0.0145
3848,0.0144
3849,0.0145
3850,0.0145
3851,0.0145
3852,0.0143
3853,0.0144
3854,0.0144
3855,0.0145
3856,0.0143
3857,0.0144
3858,0.0144
3859,0.0147
3860,0.0147
3861,0.0147
3862,0.0146
3863,0.0146
3864,0.0148
3865,0.0147
3866,0.0145
3867,0.0145
3868,0.0145
3869,0.0144
3870,0.0144
3871,0.0146
3872,0.0145
3873,0.0145
3874,0.0144
3875,0.0145
3876,0.0145
3877,0.0144
3878,0.0144
3879,0.0144
3880,0.0144
3881,0.0145
3882,0.0144
3883,0.0145
3884,0.0145
3885,0.0147
3886,0.0149
3887,0.0151
3888,0.0151
3889,0.0152
3890,0.0152
3891,0.0153
3892,0.0152
3893,0.0146
3894,0.0146
3895,0.0146
3896,0.0146
3897,0.0145
3898,0.0145
3899,0.0144
3900,0.0144
3901,0.0145
3902,0.0146
3903,0.0144
3904,0.0144
3905,0.0144
3906,0.0145
3907,0.0144
3908,0.0144
3909,0.0144
3910,0.0144
3911,0.0144
3912,0.0144
3913,0.0144
3914,0.0143
3915,0.0143
3916,0.0144
3917,0.0144
3918,0.0145
3919,0.0145
3920,0.0144
3921,0.0143
3922,0.0144
3923,0.0148
3924,0.0152
3925,0.0155
3926,0.0156
3927,0.0159
3928,0.0158
3929,0.0161
3930,0.016
3931,0.0152
3932,0.0147
3933,0.0143
3934,0.0144
3935,0.0143
3936,0.0144
3937,0.0144
3938,0.0144
3939,0.0145
3940,0.0145
3941,0.0144
3942,0.0145
3943,0.0145
3944,0.0144
3945,0.0143
3946,0.0145
3947,0.0143
3948,0.0143
3949,0.0144
3950,0.0146
3951,0.0146
3952,0.0146
3953,0.0145
3954,0.0145
3955,0.0145
3956,0.0146
3957,0.0145
3958,0.0144
3959,0.0145
3960,0.0143
3961,0.0145
3962,0.0148
3963,0.0147
3964,0.0146
3965,0.0146
3966,0.0147
3967,0.0144
3968,0.0146
3969,0.0144
3970,0.0143
3971,0.0145
3972,0.0146
3973,0.0144
3974,0.0144
3975,0.0146
3976,0.0146
3977,0.0146
3978,0.0155
3979,0.0172
3980,0.0178
3981,0.018
3982,0.0184
3983,0.0189
3984,0.019
3985,0.019
3986,0.0174
3987,0.0149
3988,0.0146
3989,0.0144
3990,0.0144
3991,0.0145
3992,0.0144
3993,0.0144
3994,0.0144
3995,0.0144
3996,0.0145
3997,0.0144
3998,0.0144
3999,0.0144
4000,0.0144
4001,0.0143
4002,0.0145
4003,0.0144
4004,0.0145
4005,0.0145
4006,0.0144
4007,0.0145
4008,0.0143
4009,0.0143
4010,0.0144
4011,0.0144
4012,0.0144
4013,0.0144
4014,0.0144
4015,0.0144
4016,0.0145
4017,0.0144
4018,0.0144
4019,0.0143
4020,0.0145
4021,0.0145
4022,0.0144
4023,0.0144
4024,0.0146
4025,0.0145
4026,0.0144
4027,0.0144
4028,0.0145
4029,0.0144
4030,0.0144
4031,0.0145
4032,0.0143
4033,0.0144
4034,0.0145
4035,0.0144
4036,0.0145
4037,0.0145
4038,0.0145
4039,0.0143
4040,0.0146
4041,0.0144
4042,0.0144
4043,0.0145
4044,0.0146
4045,0.0146
4046,0.0146
4047,0.0144
4048,0.0144
4049,0.0144
4050,0.0145
4051,0.0143
4052,0.0145
4053,0.0144
4054,0.0146
4055,0.0146
4056,0.0146
4057,0.0146
4058,0.015
4059,0.0201
4060,0.0231
4061,0.0248
4062,0.0268
4063,0.0281
4064,0.0291
4065,0.0296
4066,0.0292
4067,0.021
4068,0.0164
4069,0.0146
4070,0.0147
4071,0.0147
4072,0.0144
4073,0.0146
4074,0.0146
4075,0.0147
4076,0.0144
4077,0.0145
4078,0.0145
4079,0.0144
4080,0.0145
4081,0.0147
4082,0.0147
4083,0.0146
4084,0.0146
4085,0.0147
4086,0.0147
4087,0.0147
4088,0.0146
4089,0.0146
4090,0.0146
4091,0.0144
4092,0.0145
4093,0.0146
4094,0.0145
4095,0.0146
4096,0.0145
4097,0.0147
4098,0.0148
4099,0.0147
4100,0.0146
4101,0.0145
4102,0.0146
4103,0.0145
4104,0.0144
4105,0.0145
4106,0.0146
4107,0.0144
4108,0.0145
4109,0.0144
4110,0.0146
4111,0.0145
4112,0.0145
4113,0.0145
4114,0.0144
4115,0.0145
4116,0.0145
4117,0.0146
4118,0.0146
4119,0.0145
4120,0.0145
4121,0.0146
4122,0.0146
4123,0.0145
4124,0.0146
4125,0.0146
4126,0.0144
4127,0.0146
4128,0.0145
4129,0.0145
4130,0.0145
4131,0.0146
4132,0.0145
4133,0.0147
4134,0.0146
4135,0.0144
4136,0.0146
4137,0.0146
4138,0.0147
4139,0.0146
4140,0.0147
4141,0.0146
4142,0.0146
4143,0.0146
4144,0.0146
4145,0.0147
4146,0.0146
4147,0.0145
4148,0.0146
4149,0.0146
4150,0.0146
4151,0.0148
4152,0.0148
4153,0.0148
4154,0.0147
4155,0.0149
4156,0.0149
4157,0.015
4158,0.0152
4159,0.015
4160,0.015
4161,0.0149
4162,0.0149
4163,0.015
4164,0.0149
4165,0.0148
4166,0.0148
4167,0.0148
4168,0.0148
4169,0.0148
4170,0.0146
4171,0.0146
4172,0.0147
4173,0.0148
4174,0.0146
4175,0.0147
4176,0.0147
4177,0.0147
4178,0.0147
4179,0.0148
4180,0.0147
4181,0.0147
4182,0.0149
4183,0.0147
4184,0.0147
4185,0.015
4186,0.015
4187,0.0152
4188,0.0162
4189,0.0245
4190,0.0476
4191,0.0556
4192,0.0641
4193,0.069
4194,0.0737
4195,0.0799
4196,0.0817
4197,0.0624
4198,0.0302
4199,0.0163
4200,0.0152
4201,0.015
4202,0.0149
4203,0.0147
4204,0.0149
4205,0.0148
4206,0.0147
4207,0.0146
4208,0.0146
4209,0.0146
4210,0.0146
4211,0.0146
4212,0.0145
4213,0.0146
4214,0.0147
4215,0.0145
4216,0.0145
4217,0.0146
4218,0.0144
4219,0.0147
4220,0.0147
4221,0.0148
4222,0.0147
4223,0.0146
4224,0.0146
4225,0.0147
4226,0.0146
4227,0.0147
4228,0.0147
4229,0.0146
4230,0.0146
4231,0.0146
4232,0.0145
4233,0.0145
4234,0.0146
4235,0.0146
4236,0.0145
4237,0.0147
4238,0.0145
4239,0.0145
4240,0.0144
4241,0.0145
4242,0.0146
4243,0.0146
4244,0.0145
4245,0.0146
4246,0.0145
4247,0.0145
4248,0.0147
4249,0.0147
4250,0.0146
4251,0.0147
4252,0.0146
4253,0.0146
4254,0.0145
4255,0.0147
4256,0.0147
4257,0.0145
4258,0.0148
4259,0.0146
4260,0.0147
4261,0.0146
4262,0.0147
4263,0.0146
4264,0.0145
4265,0.0147
4266,0.0148
4267,0.0148
4268,0.015
4269,0.015
4270,0.0149
4271,0.015
4272,0.015
4273,0.0151
4274,0.0151
4275,0.0148
4276,0.0148
4277,0.0147
4278,0.0147
4279,0.0146
4280,0.0145
4281,0.0146
4282,0.0144
4283,0.0145
4284,0.0145
4285,0.0146
4286,0.0146
4287,0.0145
4288,0.0144
4289,0.0147
4290,0.0145
4291,0.0146
4292,0.0146
4293,0.0147
4294,0.0146
4295,0.0147
4296,0.0146
4297,0.0147
4298,0.0148
4299,0.015
4300,0.0148
4301,0.015
4302,0.0149
4303,0.015
4304,0.0149
4305,0.0149
4306,0.0147
4307,0.0149
4308,0.0148
4309,0.0149
4310,0.0147
4311,0.0147
4312,0.0145
4313,0.0145
4314,0.0145
4315,0.0146
4316,0.0146
4317,0.0146
4318,0.0148
4319,0.0147
4320,0.0146
4321,0.0146
4322,0.0145
4323,0.0147
4324,0.0145
4325,0.0144
4326,0.0144
4327,0.0144
4328,0.0146
4329,0.0145
4330,0.0145
4331,0.0146
4332,0.0145
4333,0.0145
4334,0.0145
4335,0.0144
4336,0.0145
4337,0.0145
4338,0.0144
4339,0.0146
4340,0.0146
4341,0.0144
4342,0.0145
4343,0.0146
4344,0.0146
4345,0.0146
4346,0.0145
4347,0.0144
4348,0.0147
4349,0.0146
4350,0.0145
4351,0.0146
4352,0.0144
4353,0.0145
4354,0.0144
4355,0.0145
4356,0.0146
4357,0.0146
4358,0.0145
4359,0.0145
4360,0.0145
4361,0.0145
4362,0.0147
4363,0.0145
4364,0.0145
4365,0.0146
4366,0.0146
4367,0.0146
4368,0.0146
4369,0.0146
4370,0.0146
4371,0.0146
4372,0.0146
4373,0.0146
4374,0.0145
4375,0.0145
4376,0.0146
4377,0.0146
4378,0.0146
4379,0.0145
4380,0.0144
4381,0.0145
4382,0.0145
4383,0.0147
4384,0.0146
4385,0.0146
4386,0.0147
4387,0.0146
4388,0.0145
4389,0.0147
4390,0.0146
4391,0.0146
4392,0.0147
4393,0.0145
4394,0.0144
4395,0.0147
4396,0.0147
4397,0.0146
4398,0.0148
4399,0.0147
4400,0.0147
4401,0.0147
4402,0.0146
4403,0.0146
4404,0.0148
4405,0.0147
4406,0.0145
4407,0.0147
4408,0.0147
4409,0.0147
4410,0.0146
4411,0.0146
4412,0.0148
4413,0.0147
4414,0.0146
4415,0.0148
4416,0.0148
4417,0.0148
4418,0.0149
4419,0.0151
4420,0.0151
4421,0.0151
4422,0.0153
4423,0.0155
4424,0.0158
4425,0.0163
4426,0.0169
4427,0.0182
4428,0.0221
4429,0.0974
4430,0.2308
4431,0.278
4432,0.3083
4433,0.3524
4434,0.3783
4435,0.4041
4436,0.3835
4437,0.3106
4438,0.038
4439,0.0202
4440,0.0175
4441,0.0164
4442,0.0159
4443,0.0157
4444,0.0153
4445,0.0151
4446,0.0151
4447,0.015
4448,0.0147
4449,0.0148
4450,0.0149
4451,0.0148
4452,0.0148
4453,0.0148
4454,0.0147
4455,0.0148
4456,0.0148
4457,0.0149
4458,0.0149
4459,0.0149
4460,0.0149
4461,0.0149
4462,0.0151
4463,0.0149
4464,0.015
4465,0.0147
4466,0.0147
4467,0.0147
4468,0.0147
4469,0.0148
4470,0.0149
4471,0.0148
4472,0.0147
4473,0.0148
4474,0.0149
4475,0.0146
4476,0.0145
4477,0.0146
4478,0.0148
4479,0.0148
4480,0.0149
4481,0.0149
4482,0.0148
4483,0.0149
4484,0.0149
4485,0.0149
4486,0.015
4487,0.0147
4488,0.0147
4489,0.0146
4490,0.0147
4491,0.0147
4492,0.0147
4493,0.0147
4494,0.0149
4495,0.0147
4496,0.0148
4497,0.0147
4498,0.0146
4499,0.0148
4500,0.0147
4501,0.0151
4502,0.0151
4503,0.0152
4504,0.0155
4505,0.0157
4506,0.0159
4507,0.0159
4508,0.0159
4509,0.0158
4510,0.0157
4511,0.0154
4512,0.0155
4513,0.0153
4514,0.0153
4515,0.015
4516,0.0153
4517,0.0151
4518,0.0151
4519,0.015
4520,0.0151
4521,0.015
4522,0.0149
4523,0.0149
4524,0.0148
4525,0.0147
4526,0.0147
4527,0.0147
4528,0.0148
4529,0.0148
4530,0.015
4531,0.0148
4532,0.0146
4533,0.0148
4534,0.0148
4535,0.0149
4536,0.015
4537,0.015
4538,0.0151
4539,0.0153
4540,0.0156
4541,0.0155
4542,0.0154
4543,0.0152
4544,0.0151
4545,0.015
4546,0.015
4547,0.015
4548,0.0149
4549,0.015
4550,0.0153
4551,0.0154
4552,0.0154
4553,0.0154
4554,0.0153
4555,0.0154
4556,0.0155
4557,0.0155
4558,0.0153
4559,0.015
4560,0.0149
4561,0.0149
4562,0.0148
4563,0.0148
4564,0.0148
4565,0.0148
4566,0.0149
4567,0.015
4568,0.0148
4569,0.0149
4570,0.0148
4571,0.0148
4572,0.0149
4573,0.0147
4574,0.0148
4575,0.0149
4576,0.0149
4577,0.0151
4578,0.0154
4579,0.0152
4580,0.0154
4581,0.0155
4582,0.0155
4583,0.0156
4584,0.0156
4585,0.0155
4586,0.0153
4587,0.015
4588,0.0151
4589,0.0152
4590,0.0152
4591,0.0153
4592,0.0153
4593,0.0154
4594,0.0155
4595,0.0152
4596,0.015
4597,0.0149
4598,0.0147
4599,0.0149
4600,0.0147
4601,0.0147
4602,0.0147
4603,0.0148
4604,0.0147
4605,0.0148
4606,0.0148
4607,0.0149
4608,0.0151
4609,0.015
4610,0.0149
4611,0.015
4612,0.015
4613,0.0148
4614,0.0147
4615,0.0148
4616,0.0149
4617,0.0151
4618,0.0147
4619,0.0149
4620,0.0147
4621,0.0147
4622,0.0148
4623,0.0147
4624,0.0146
4625,0.0148
4626,0.0148
4627,0.0149
4628,0.0151
4629,0.015
4630,0.0148
4631,0.015
4632,0.0148
4633,0.0148
4634,0.0149
4635,0.0147
4636,0.0147
4637,0.0146
4638,0.0145
4639,0.0145
4640,0.0147
4641,0.0145
4642,0.0147
4643,0.0146
4644,0.0148
4645,0.0147
4646,0.0148
4647,0.0148
4648,0.0149
4649,0.015
4650,0.015
4651,0.0147
4652,0.015
4653,0.0149
4654,0.0149
4655,0.0149
4656,0.0149
4657,0.0146
4658,0.0148
4659,0.015
4660,0.0149
4661,0.0151
4662,0.015
4663,0.0152
4664,0.0154
4665,0.0155
4666,0.0154
4667,0.0153
4668,0.0153
4669,0.0154
4670,0.0155
4671,0.0155
4672,0.0156
4673,0.0157
4674,0.0158
4675,0.0157
4676,0.0159
4677,0.0158
4678,0.0154
4679,0.0153
4680,0.015
4681,0.0151
4682,0.0148
4683,0.0148
4684,0.0148
4685,0.0148
4686,0.0149
4687,0.0147
4688,0.0147
4689,0.0149
4690,0.015
4691,0.0148
4692,0.0147
4693,0.0148
4694,0.0148
4695,0.0149
4696,0.0148
4697,0.0147
4698,0.0148
4699,0.0148
4700,0.0149
4701,0.0148
4702,0.0147
4703,0.0148
4704,0.0148
4705,0.0148
4706,0.0148
4707,0.0147
4708,0.0148
4709,0.0149
4710,0.0151
4711,0.015
4712,0.0149
4713,0.0151
4714,0.0148
4715,0.0149
4716,0.0149
4717,0.0148
4718,0.015
4719,0.0152
4720,0.0152
4721,0.0153
4722,0.0156
4723,0.0158
4724,0.0159
4725,0.0161
4726,0.0162
4727,0.0164
4728,0.0165
4729,0.0161
4730,0.0159
4731,0.0156
4732,0.0152
4733,0.0148
4734,0.0148
4735,0.0147
4736,0.0148
4737,0.0147
4738,0.0148
4739,0.0146
4740,0.0148
4741,0.0147
4742,0.0146
4743,0.0149
4744,0.0148
4745,0.0148
4746,0.0149
4747,0.0149
4748,0.0149
4749,0.0148
4750,0.0146
4751,0.0147
4752,0.0147
4753,0.0145
4754,0.0148
4755,0.0146
4756,0.0148
4757,0.0148
4758,0.0147
4759,0.0147
4760,0.0147
4761,0.0147
4762,0.0146
4763,0.0146
4764,0.0145
4765,0.0145
4766,0.0147
4767,0.0148
4768,0.0148
4769,0.0145
4770,0.0146
4771,0.0144
4772,0.0145
4773,0.0145
4774,0.0147
4775,0.0147
4776,0.0147
4777,0.0148
4778,0.0149
4779,0.0148
4780,0.0149
4781,0.0146
4782,0.0145
4783,0.0147
4784,0.0146
4785,0.0145
4786,0.0145
4787,0.0144
4788,0.0144
4789,0.0145
4790,0.0143
4791,0.0144
4792,0.0145
4793,0.0145
4794,0.0144
4795,0.0144
4796,0.0144
4797,0.0145
4798,0.0145
4799,0.0145
4800,0.0146
4801,0.0145
4802,0.0146
4803,0.0146
4804,0.0145
4805,0.0144
4806,0.0144
4807,0.0145
4808,0.0145
4809,0.0146
4810,0.0147
4811,0.0147
4812,0.0148
4813,0.0147
4814,0.0148
4815,0.0148
4816,0.0147
4817,0.0148
4818,0.0148
4819,0.0146
4820,0.0145
4821,0.0144
4822,0.0145
4823,0.0146
4824,0.0146
4825,0.0146
4826,0.0148
4827,0.0146
4828,0.0147
4829,0.0147
4830,0.0146
4831,0.0147
4832,0.0146
4833,0.0147
4834,0.0145
4835,0.0146
4836,0.0146
4837,0.0146
4838,0.0144
4839,0.0146
4840,0.0145
4841,0.0143
4842,0.0145
4843,0.0146
4844,0.0145
4845,0.0144
4846,0.0145
4847,0.0144
4848,0.0146
4849,0.0145
4850,0.0146
4851,0.0147
4852,0.0146
4853,0.0145
4854,0.0146
4855,0.0146
4856,0.0145
4857,0.0145
4858,0.0146
4859,0.0145
4860,0.0146
4861,0.0146
4862,0.0145
4863,0.0145
4864,0.0146
4865,0.0143
4866,0.0145
4867,0.0147
4868,0.0146
4869,0.0145
4870,0.0147
4871,0.0146
4872,0.0146
4873,0.0148
4874,0.0146
4875,0.0147
4876,0.0148
4877,0.0148
4878,0.0148
4879,0.0147
4880,0.0147
4881,0.0149
4882,0.0147
4883,0.0147
4884,0.0147
4885,0.0147
4886,0.0149
4887,0.0148
4888,0.0149
4889,0.0149
4890,0.0148
4891,0.0148
4892,0.0148
4893,0.0149
4894,0.0148
4895,0.0148
4896,0.0147
4897,0.0146
4898,0.0149
4899,0.0146
4900,0.0148
4901,0.0149
4902,0.0148
4903,0.0148
4904,0.0149
4905,0.0149
4906,0.015
4907,0.0149
4908,0.0148
4909,0.0147
