Wavelength(10nm),Signal_Amplitude(V)
3240.1,0.015
3241.1,0.0151
3242.1,0.015
3243.1,0.0149
3244.1,0.015
3245.1,0.0149
3246.1,0.0152
3247.1,0.0151
3248.1,0.0151
3249.1,0.0151
3250.1,0.0152
3251.1,0.0151
3252.1,0.0151
3253.1,0.0151
3254.1,0.0152
3255.1,0.0152
3256.1,0.0152
3257.1,0.0152
3258.1,0.0151
3259.1,0.015
3260.1,0.015
3261.1,0.0151
3262.1,0.0151
3263.1,0.015
3264.1,0.0152
3265.1,0.0152
3266.1,0.0151
3267.1,0.0152
3268.1,0.0152
3269.1,0.015
3270.1,0.0152
3271.1,0.015
3272.1,0.0151
3273.1,0.0152
3274.1,0.0152
3275.1,0.0152
3276.1,0.0151
3277.1,0.0152
3278.1,0.0152
3279.1,0.015
3280.1,0.0152
3281.1,0.0153
3282.1,0.0152
3283.1,0.0155
3284.1,0.0155
3285.1,0.0153
3286.1,0.0152
3287.1,0.0152
3288.1,0.0152
3289.1,0.0152
3290.1,0.0154
3291.1,0.0154
3292.1,0.0155
3293.1,0.0154
3294.1,0.0154
3295.1,0.0154
3296.1,0.0153
3297.1,0.0153
3298.1,0.0154
3299.1,0.0152
3300.1,0.0154
3301.1,0.0155
3302.1,0.0156
3303.1,0.0156
3304.1,0.0156
3305.1,0.0155
3306.1,0.0154
3307.1,0.0154
3308.1,0.0153
3309.1,0.0155
3310.1,0.0154
3311.1,0.0156
3312.1,0.0156
3313.1,0.0156
3314.1,0.0156
3315.1,0.0155
3316.1,0.0154
3317.1,0.0154
3318.1,0.0153
3319.1,0.0153
3320.1,0.0154
3321.1,0.0155
3322.1,0.0156
3323.1,0.0155
3324.1,0.0156
3325.1,0.0154
3326.1,0.0156
3327.1,0.0155
3328.1,0.0155
3329.1,0.0155
3330.1,0.0155
3331.1,0.0157
3332.1,0.0155
3333.1,0.0156
3334.1,0.0156
3335.1,0.0157
3336.1,0.0156
3337.1,0.0157
3338.1,0.0155
3339.1,0.0156
3340.1,0.0156
3341.1,0.0157
3342.1,0.0157
3343.1,0.0157
3344.1,0.0156
3345.1,0.0157
3346.1,0.0158
3347.1,0.0158
3348.1,0.0159
3349.1,0.0157
3350.1,0.0157
3351.1,0.0157
3352.1,0.0157
3353.1,0.0156
3354.1,0.0159
3355.1,0.0157
3356.1,0.016
3357.1,0.0159
3358.1,0.016
3359.1,0.016
3360.1,0.0158
3361.1,0.0159
3362.1,0.0158
3363.1,0.0158
3364.1,0.0159
3365.1,0.0159
3366.1,0.016
3367.1,0.016
3368.1,0.0158
3369.1,0.0161
3370.1,0.0163
3371.1,0.0162
3372.1,0.016
3373.1,0.0159
3374.1,0.0161
3375.1,0.0161
3376.1,0.0162
3377.1,0.016
3378.1,0.0161
3379.1,0.0161
3380.1,0.0162
3381.1,0.0162
3382.1,0.0161
3383.1,0.0161
3384.1,0.0162
3385.1,0.016
3386.1,0.0162
3387.1,0.0162
3388.1,0.0162
3389.1,0.0161
3390.1,0.0162
3391.1,0.0162
3392.1,0.0163
3393.1,0.0163
3394.1,0.0162
3395.1,0.0163
3396.1,0.0163
3397.1,0.0163
3398.1,0.0162
3399.1,0.0161
3400.1,0.0164
3401.1,0.0162
3402.1,0.0162
3403.1,0.0165
3404.1,0.0163
3405.1,0.0163
3406.1,0.0164
3407.1,0.0163
3408.1,0.0164
3409.1,0.0164
3410.1,0.0163
3411.1,0.0164
3412.1,0.0163
3413.1,0.0165
3414.1,0.0163
3415.1,0.0164
3416.1,0.0163
3417.1,0.0163
3418.1,0.0163
3419.1,0.0162
3420.1,0.0161
3421.1,0.0163
3422.1,0.0161
3423.1,0.0164
3424.1,0.0163
3425.1,0.0162
3426.1,0.0162
3427.1,0.0164
3428.1,0.0163
3429.1,0.0162
3430.1,0.0164
3431.1,0.0162
3432.1,0.0163
3433.1,0.0162
3434.1,0.0162
3435.1,0.0164
3436.1,0.0163
3437.1,0.0162
3438.1,0.0163
3439.1,0.0164
3440.1,0.0162
3441.1,0.0162
3442.1,0.0162
3443.1,0.0162
3444.1,0.0163
3445.1,0.0163
3446.1,0.0161
3447.1,0.0165
3448.1,0.0163
3449.1,0.0165
3450.1,0.0166
3451.1,0.0166
3452.1,0.0167
3453.1,0.0168
3454.1,0.0165
3455.1,0.0165
3456.1,0.0165
3457.1,0.0164
3458.1,0.0165
3459.1,0.0165
3460.1,0.0166
3461.1,0.0166
3462.1,0.0165
3463.1,0.0166
3464.1,0.0164
3465.1,0.0167
3466.1,0.0165
3467.1,0.0165
3468.1,0.0164
3469.1,0.0164
3470.1,0.0166
3471.1,0.0165
3472.1,0.0166
3473.1,0.0165
3474.1,0.0164
3475.1,0.0166
3476.1,0.0163
3477.1,0.0164
3478.1,0.0166
3479.1,0.0166
3480.1,0.0165
3481.1,0.0166
3482.1,0.0165
3483.1,0.0164
3484.1,0.0166
3485.1,0.0167
3486.1,0.0167
3487.1,0.0167
3488.1,0.0166
3489.1,0.0164
3490.1,0.0165
3491.1,0.0166
3492.1,0.0166
3493.1,0.0166
3494.1,0.0165
3495.1,0.0166
3496.1,0.0167
3497.1,0.0167
3498.1,0.0166
3499.1,0.0167
3500.1,0.0167
3501.1,0.0168
3502.1,0.0165
3503.1,0.0167
3504.1,0.0166
3505.1,0.0165
3506.1,0.0168
3507.1,0.0165
3508.1,0.0166
3509.1,0.0166
3510.1,0.0166
3511.1,0.0166
3512.1,0.0167
3513.1,0.0166
3514.1,0.0167
3515.1,0.0168
3516.1,0.0167
3517.1,0.0167
3518.1,0.0166
3519.1,0.0167
3520.1,0.0168
3521.1,0.0167
3522.1,0.0168
3523.1,0.0168
3524.1,0.0167
3525.1,0.0168
3526.1,0.0167
3527.1,0.0167
3528.1,0.0167
3529.1,0.0168
3530.1,0.0168
3531.1,0.0168
3532.1,0.0167
3533.1,0.0167
3534.1,0.0168
3535.1,0.0169
3536.1,0.0168
3537.1,0.0168
3538.1,0.0167
3539.1,0.0167
3540.1,0.0168
3541.1,0.0168
3542.1,0.0168
3543.1,0.0166
3544.1,0.0167
3545.1,0.0168
3546.1,0.0169
3547.1,0.0169
3548.1,0.0166
3549.1,0.0169
3550.1,0.0168
3551.1,0.0168
3552.1,0.0168
3553.1,0.0169
3554.1,0.017
3555.1,0.0169
3556.1,0.0169
3557.1,0.0168
3558.1,0.0168
3559.1,0.0168
3560.1,0.0169
3561.1,0.0168
3562.1,0.017
3563.1,0.017
3564.1,0.0169
3565.1,0.0169
3566.1,0.0169
3567.1,0.017
3568.1,0.0169
3569.1,0.0168
3570.1,0.017
3571.1,0.0168
3572.1,0.0169
3573.1,0.0171
3574.1,0.0168
3575.1,0.0169
3576.1,0.0169
3577.1,0.0169
3578.1,0.0169
3579.1,0.0169
3580.1,0.017
3581.1,0.0171
3582.1,0.0168
3583.1,0.0169
3584.1,0.0169
3585.1,0.017
3586.1,0.017
3587.1,0.0168
3588.1,0.017
3589.1,0.017
3590.1,0.0169
3591.1,0.017
3592.1,0.0168
3593.1,0.0169
3594.1,0.0169
3595.1,0.017
3596.1,0.0168
3597.1,0.017
3598.1,0.017
3599.1,0.0169
3600.1,0.017
3601.1,0.017
3602.1,0.0169
3603.1,0.0172
3604.1,0.0168
3605.1,0.0171
3606.1,0.0169
3607.1,0.0169
3608.1,0.0168
3609.1,0.017
3610.1,0.0172
3611.1,0.017
3612.1,0.0171
3613.1,0.017
3614.1,0.0171
3615.1,0.017
3616.1,0.0168
3617.1,0.0171
3618.1,0.0171
3619.1,0.0171
3620.1,0.017
3621.1,0.0171
3622.1,0.017
3623.1,0.0169
3624.1,0.017
3625.1,0.0171
3626.1,0.017
3627.1,0.0171
3628.1,0.0171
3629.1,0.0171
3630.1,0.0171
3631.1,0.017
3632.1,0.017
3633.1,0.0171
3634.1,0.017
3635.1,0.017
3636.1,0.017
3637.1,0.0171
3638.1,0.0171
3639.1,0.0171
3640.1,0.0171
3641.1,0.0171
3642.1,0.0171
3643.1,0.0172
3644.1,0.0171
3645.1,0.0172
3646.1,0.0171
3647.1,0.017
3648.1,0.0171
3649.1,0.017
3650.1,0.0171
3651.1,0.0171
3652.1,0.0172
3653.1,0.0172
3654.1,0.0171
3655.1,0.0173
3656.1,0.0171
3657.1,0.0169
3658.1,0.017
3659.1,0.0171
3660.1,0.0173
3661.1,0.0173
3662.1,0.017
3663.1,0.0171
3664.1,0.0171
3665.1,0.0173
3666.1,0.0172
3667.1,0.0171
3668.1,0.0171
3669.1,0.0173
3670.1,0.0172
3671.1,0.0172
3672.1,0.0174
3673.1,0.0171
3674.1,0.0172
3675.1,0.0174
3676.1,0.0172
3677.1,0.0173
3678.1,0.0173
3679.1,0.0172
3680.1,0.0172
3681.1,0.017
3682.1,0.0173
3683.1,0.0171
3684.1,0.0172
3685.1,0.0172
3686.1,0.0173
3687.1,0.0173
3688.1,0.0173
3689.1,0.0171
3690.1,0.0173
3691.1,0.0173
3692.1,0.0173
3693.1,0.0172
3694.1,0.0173
3695.1,0.0172
3696.1,0.0173
3697.1,0.0174
3698.1,0.0171
3699.1,0.0174
3700.1,0.0172
3701.1,0.0174
3702.1,0.0173
3703.1,0.0174
3704.1,0.0174
3705.1,0.0173
3706.1,0.0172
3707.1,0.0172
3708.1,0.0171
3709.1,0.0172
3710.1,0.0172
3711.1,0.0172
3712.1,0.0174
3713.1,0.0175
3714.1,0.0172
3715.1,0.0173
3716.1,0.0172
3717.1,0.0173
3718.1,0.0174
3719.1,0.0174
3720.1,0.0172
3721.1,0.0172
3722.1,0.0172
3723.1,0.0174
3724.1,0.0173
3725.1,0.0173
3726.1,0.0172
3727.1,0.0174
3728.1,0.0174
3729.1,0.0175
3730.1,0.0172
3731.1,0.0174
3732.1,0.0173
3733.1,0.0173
3734.1,0.0173
3735.1,0.0172
3736.1,0.0174
3737.1,0.0173
3738.1,0.0173
3739.1,0.0173
3740.1,0.0173
3741.1,0.0172
3742.1,0.0173
3743.1,0.0174
3744.1,0.0172
3745.1,0.0174
3746.1,0.0173
3747.1,0.0174
3748.1,0.0174
3749.1,0.0173
3750.1,0.0174
3751.1,0.0175
3752.1,0.0173
3753.1,0.0175
3754.1,0.0174
3755.1,0.0174
3756.1,0.0175
3757.1,0.0177
3758.1,0.0177
3759.1,0.0176
3760.1,0.0177
3761.1,0.0174
3762.1,0.0175
3763.1,0.0175
3764.1,0.0175
3765.1,0.0177
3766.1,0.0179
3767.1,0.0175
3768.1,0.0177
3769.1,0.0176
3770.1,0.0174
3771.1,0.0176
3772.1,0.0176
3773.1,0.0176
3774.1,0.0178
3775.1,0.0179
3776.1,0.018
3777.1,0.0179
3778.1,0.0178
3779.1,0.0176
3780.1,0.0177
3781.1,0.0174
3782.1,0.0176
3783.1,0.0175
3784.1,0.0173
3785.1,0.0174
3786.1,0.0174
3787.1,0.0175
3788.1,0.0177
3789.1,0.0174
3790.1,0.0176
3791.1,0.0174
3792.1,0.0175
3793.1,0.0174
3794.1,0.0176
3795.1,0.0175
3796.1,0.0175
3797.1,0.0174
3798.1,0.0176
3799.1,0.0175
3800.1,0.0173
3801.1,0.0173
3802.1,0.0174
3803.1,0.0175
3804.1,0.0174
3805.1,0.0175
3806.1,0.0175
3807.1,0.0173
3808.1,0.0173
3809.1,0.0174
3810.1,0.0175
3811.1,0.0174
3812.1,0.0174
3813.1,0.0174
3814.1,0.0175
3815.1,0.0174
3816.1,0.0174
3817.1,0.0175
3818.1,0.0173
3819.1,0.0173
3820.1,0.0175
3821.1,0.0173
3822.1,0.0174
3823.1,0.0174
3824.1,0.0176
3825.1,0.0178
3826.1,0.0177
3827.1,0.0176
3828.1,0.0177
3829.1,0.0175
3830.1,0.0173
3831.1,0.0175
3832.1,0.0175
3833.1,0.0175
3834.1,0.0174
3835.1,0.0172
3836.1,0.0175
3837.1,0.0175
3838.1,0.0174
3839.1,0.0175
3840.1,0.0176
3841.1,0.0178
3842.1,0.0179
3843.1,0.0179
3844.1,0.0177
3845.1,0.0176
3846.1,0.0176
3847.1,0.0174
3848.1,0.0173
3849.1,0.0173
3850.1,0.0173
3851.1,0.0174
3852.1,0.0174
3853.1,0.0172
3854.1,0.0174
3855.1,0.0173
3856.1,0.0172
3857.1,0.0173
3858.1,0.0174
3859.1,0.0175
3860.1,0.018
3861.1,0.0183
3862.1,0.0184
3863.1,0.0185
3864.1,0.0185
3865.1,0.0181
3866.1,0.0176
3867.1,0.0174
3868.1,0.0174
3869.1,0.0174
3870.1,0.0173
3871.1,0.0174
3872.1,0.0174
3873.1,0.0174
3874.1,0.0175
3875.1,0.0175
3876.1,0.0175
3877.1,0.0175
3878.1,0.0175
3879.1,0.0175
3880.1,0.0175
3881.1,0.0174
3882.1,0.0174
3883.1,0.0175
3884.1,0.0174
3885.1,0.0175
3886.1,0.0178
3887.1,0.0185
3888.1,0.0195
3889.1,0.0204
3890.1,0.0204
3891.1,0.0207
3892.1,0.0199
3893.1,0.0187
3894.1,0.0179
3895.1,0.0176
3896.1,0.0177
3897.1,0.0175
3898.1,0.0175
3899.1,0.0175
3900.1,0.0175
3901.1,0.0175
3902.1,0.0175
3903.1,0.0177
3904.1,0.0175
3905.1,0.0175
3906.1,0.0175
3907.1,0.0175
3908.1,0.0175
3909.1,0.0174
3910.1,0.0174
3911.1,0.0173
3912.1,0.0174
3913.1,0.0174
3914.1,0.0174
3915.1,0.0175
3916.1,0.0174
3917.1,0.0176
3918.1,0.0174
3919.1,0.0175
3920.1,0.0174
3921.1,0.0175
3922.1,0.0176
3923.1,0.0176
3924.1,0.0177
3925.1,0.0187
3926.1,0.0207
3927.1,0.0233
3928.1,0.0239
3929.1,0.0239
3930.1,0.0232
3931.1,0.0211
3932.1,0.0183
3933.1,0.0178
3934.1,0.0175
3935.1,0.0175
3936.1,0.0175
3937.1,0.0176
3938.1,0.0175
3939.1,0.0173
3940.1,0.0177
3941.1,0.0176
3942.1,0.0176
3943.1,0.0178
3944.1,0.0177
3945.1,0.0177
3946.1,0.0176
3947.1,0.0175
3948.1,0.0176
3949.1,0.0176
3950.1,0.0175
3951.1,0.0178
3952.1,0.018
3953.1,0.0179
3954.1,0.0181
3955.1,0.0181
3956.1,0.018
3957.1,0.0181
3958.1,0.018
3959.1,0.0179
3960.1,0.0178
3961.1,0.0178
3962.1,0.018
3963.1,0.018
3964.1,0.0183
3965.1,0.0184
3966.1,0.0182
3967.1,0.0181
3968.1,0.0177
3969.1,0.0176
3970.1,0.0174
3971.1,0.0177
3972.1,0.0176
3973.1,0.0175
3974.1,0.0176
3975.1,0.0174
3976.1,0.0176
3977.1,0.0176
3978.1,0.0176
3979.1,0.0179
3980.1,0.0219
3981.1,0.0289
3982.1,0.0342
3983.1,0.0359
3984.1,0.0363
3985.1,0.0343
3986.1,0.0286
3987.1,0.0198
3988.1,0.0179
3989.1,0.0177
3990.1,0.0176
3991.1,0.0174
3992.1,0.0175
3993.1,0.0174
3994.1,0.0175
3995.1,0.0175
3996.1,0.0176
3997.1,0.0175
3998.1,0.0176
3999.1,0.0173
4000.1,0.0174
4001.1,0.0175
4002.1,0.0175
4003.1,0.0174
4004.1,0.0176
4005.1,0.0175
4006.1,0.0174
4007.1,0.0173
4008.1,0.0173
4009.1,0.0175
4010.1,0.0176
4011.1,0.0177
4012.1,0.0174
4013.1,0.0175
4014.1,0.0175
4015.1,0.0175
4016.1,0.0174
4017.1,0.0175
4018.1,0.0175
4019.1,0.0177
4020.1,0.0176
4021.1,0.0176
4022.1,0.0176
4023.1,0.0177
4024.1,0.0175
4025.1,0.0175
4026.1,0.0176
4027.1,0.0177
4028.1,0.0177
4029.1,0.0176
4030.1,0.0175
4031.1,0.0178
4032.1,0.0176
4033.1,0.0175
4034.1,0.0176
4035.1,0.0175
4036.1,0.0177
4037.1,0.0177
4038.1,0.0176
4039.1,0.0177
4040.1,0.018
4041.1,0.0181
4042.1,0.0182
4043.1,0.0181
4044.1,0.018
4045.1,0.0179
4046.1,0.0179
4047.1,0.0178
4048.1,0.0179
4049.1,0.0175
4050.1,0.0177
4051.1,0.0177
4052.1,0.0178
4053.1,0.0178
4054.1,0.0179
4055.1,0.0182
4056.1,0.018
4057.1,0.0181
4058.1,0.0183
4059.1,0.0184
4060.1,0.0187
4061.1,0.0262
4062.1,0.0631
4063.1,0.0759
4064.1,0.08
4065.1,0.08
4066.1,0.0696
4067.1,0.0478
4068.1,0.0282
4069.1,0.0194
4070.1,0.0186
4071.1,0.0184
4072.1,0.0182
4073.1,0.0182
4074.1,0.0182
4075.1,0.0183
4076.1,0.0181
4077.1,0.0181
4078.1,0.0183
4079.1,0.0182
4080.1,0.0181
4081.1,0.0181
4082.1,0.0184
4083.1,0.0183
4084.1,0.0188
4085.1,0.0187
4086.1,0.0187
4087.1,0.0183
4088.1,0.0183
4089.1,0.0182
4090.1,0.0182
4091.1,0.0181
4092.1,0.0182
4093.1,0.0182
4094.1,0.0181
4095.1,0.0181
4096.1,0.0181
4097.1,0.0183
4098.1,0.0183
4099.1,0.0183
4100.1,0.0183
4101.1,0.0181
4102.1,0.0181
4103.1,0.018
4104.1,0.0179
4105.1,0.0178
4106.1,0.018
4107.1,0.018
4108.1,0.018
4109.1,0.0179
4110.1,0.018
4111.1,0.018
4112.1,0.0181
4113.1,0.0181
4114.1,0.0179
4115.1,0.018
4116.1,0.0179
4117.1,0.018
4118.1,0.0181
4119.1,0.0184
4120.1,0.0183
4121.1,0.0184
4122.1,0.0182
4123.1,0.0182
4124.1,0.018
4125.1,0.0181
4126.1,0.0181
4127.1,0.0179
4128.1,0.0178
4129.1,0.0179
4130.1,0.0179
4131.1,0.0178
4132.1,0.018
4133.1,0.0179
4134.1,0.018
4135.1,0.018
4136.1,0.018
4137.1,0.0179
4138.1,0.0182
4139.1,0.0182
4140.1,0.0183
4141.1,0.0182
4142.1,0.0183
4143.1,0.0181
4144.1,0.0182
4145.1,0.0182
4146.1,0.0183
4147.1,0.0184
4148.1,0.0184
4149.1,0.0185
4150.1,0.0182
4151.1,0.0182
4152.1,0.0184
4153.1,0.0189
4154.1,0.0192
4155.1,0.0196
4156.1,0.0196
4157.1,0.0198
4158.1,0.0197
4159.1,0.0198
4160.1,0.02
4161.1,0.0201
4162.1,0.02
4163.1,0.0197
4164.1,0.0196
4165.1,0.0192
4166.1,0.019
4167.1,0.0185
4168.1,0.0184
4169.1,0.0187
4170.1,0.0187
4171.1,0.0185
4172.1,0.0187
4173.1,0.0188
4174.1,0.0185
4175.1,0.0186
4176.1,0.0185
4177.1,0.0189
4178.1,0.0186
4179.1,0.019
4180.1,0.0188
4181.1,0.0187
4182.1,0.0186
4183.1,0.0184
4184.1,0.0185
4185.1,0.0185
4186.1,0.0191
4187.1,0.0192
4188.1,0.0196
4189.1,0.0208
4190.1,0.0227
4191.1,0.0763
4192.1,0.1703
4193.1,0.2396
4194.1,0.2845
4195.1,0.2865
4196.1,0.2824
4197.1,0.1286
4198.1,0.0569
4199.1,0.0294
4200.1,0.0202
4201.1,0.0195
4202.1,0.019
4203.1,0.0188
4204.1,0.0187
4205.1,0.0187
4206.1,0.0184
4207.1,0.0185
4208.1,0.0184
4209.1,0.0183
4210.1,0.0181
4211.1,0.0181
4212.1,0.0183
4213.1,0.0182
4214.1,0.0181
4215.1,0.0181
4216.1,0.0182
4217.1,0.0179
4218.1,0.018
4219.1,0.0181
4220.1,0.018
4221.1,0.018
4222.1,0.0181
4223.1,0.0183
4224.1,0.0183
4225.1,0.0183
4226.1,0.0184
4227.1,0.0183
4228.1,0.0182
4229.1,0.0181
4230.1,0.0182
4231.1,0.018
4232.1,0.018
4233.1,0.018
4234.1,0.0181
4235.1,0.0181
4236.1,0.0178
4237.1,0.0182
4238.1,0.0182
4239.1,0.0181
4240.1,0.018
4241.1,0.018
4242.1,0.0181
4243.1,0.0179
4244.1,0.0178
4245.1,0.018
4246.1,0.018
4247.1,0.0181
4248.1,0.0184
4249.1,0.0185
4250.1,0.0184
4251.1,0.0185
4252.1,0.0186
4253.1,0.0183
4254.1,0.0185
4255.1,0.0186
4256.1,0.0187
4257.1,0.0186
4258.1,0.0186
4259.1,0.0185
4260.1,0.0183
4261.1,0.018
4262.1,0.0184
4263.1,0.0184
4264.1,0.0188
4265.1,0.019
4266.1,0.019
4267.1,0.0193
4268.1,0.0191
4269.1,0.0199
4270.1,0.0202
4271.1,0.0204
4272.1,0.0205
4273.1,0.0203
4274.1,0.02
4275.1,0.0194
4276.1,0.0192
4277.1,0.0186
4278.1,0.0184
4279.1,0.0183
4280.1,0.018
4281.1,0.018
4282.1,0.018
4283.1,0.0179
4284.1,0.0182
4285.1,0.018
4286.1,0.0179
4287.1,0.018
4288.1,0.0182
4289.1,0.0184
4290.1,0.0185
4291.1,0.0187
4292.1,0.0186
4293.1,0.0186
4294.1,0.0185
4295.1,0.0185
4296.1,0.0185
4297.1,0.0188
4298.1,0.0189
4299.1,0.0193
4300.1,0.0193
4301.1,0.0192
4302.1,0.019
4303.1,0.0189
4304.1,0.0191
4305.1,0.0195
4306.1,0.0195
4307.1,0.0194
4308.1,0.0191
4309.1,0.0188
4310.1,0.0184
4311.1,0.0181
4312.1,0.0181
4313.1,0.018
4314.1,0.018
4315.1,0.0181
4316.1,0.0183
4317.1,0.0184
4318.1,0.0185
4319.1,0.0182
4320.1,0.0182
4321.1,0.018
4322.1,0.018
4323.1,0.0178
4324.1,0.018
4325.1,0.0177
4326.1,0.0178
4327.1,0.0179
4328.1,0.0179
4329.1,0.0179
4330.1,0.0182
4331.1,0.0179
4332.1,0.0178
4333.1,0.0179
4334.1,0.0178
4335.1,0.0176
4336.1,0.018
4337.1,0.0179
4338.1,0.0179
4339.1,0.0179
4340.1,0.0177
4341.1,0.0179
4342.1,0.0177
4343.1,0.0178
4344.1,0.0178
4345.1,0.0179
4346.1,0.018
4347.1,0.0179
4348.1,0.0178
4349.1,0.018
4350.1,0.0179
4351.1,0.0179
4352.1,0.0178
4353.1,0.0179
4354.1,0.0177
4355.1,0.0179
4356.1,0.0179
4357.1,0.0177
4358.1,0.0179
4359.1,0.018
4360.1,0.0179
4361.1,0.0181
4362.1,0.0179
4363.1,0.0177
4364.1,0.0177
4365.1,0.0179
4366.1,0.0179
4367.1,0.0179
4368.1,0.0178
4369.1,0.0177
4370.1,0.0178
4371.1,0.0179
4372.1,0.0179
4373.1,0.0179
4374.1,0.0178
4375.1,0.0178
4376.1,0.018
4377.1,0.0178
4378.1,0.018
4379.1,0.0179
4380.1,0.0178
4381.1,0.018
4382.1,0.0178
4383.1,0.0179
4384.1,0.0182
4385.1,0.0181
4386.1,0.0182
4387.1,0.0179
4388.1,0.018
4389.1,0.0182
4390.1,0.018
4391.1,0.018
4392.1,0.0179
4393.1,0.0179
4394.1,0.0181
4395.1,0.018
4396.1,0.0183
4397.1,0.0183
4398.1,0.0183
4399.1,0.0184
4400.1,0.0183
4401.1,0.0183
4402.1,0.0182
4403.1,0.0182
4404.1,0.0181
4405.1,0.0182
4406.1,0.0183
4407.1,0.0183
4408.1,0.0182
4409.1,0.0182
4410.1,0.0182
4411.1,0.0183
4412.1,0.0185
4413.1,0.0183
4414.1,0.0183
4415.1,0.0185
4416.1,0.0186
4417.1,0.0187
4418.1,0.0188
4419.1,0.019
4420.1,0.0191
4421.1,0.0192
4422.1,0.0199
4423.1,0.0199
4424.1,0.0204
4425.1,0.0208
4426.1,0.0217
4427.1,0.0234
4428.1,0.0256
4429.1,0.0295
4430.1,0.0747
4431.1,0.4533
4432.1,1.007
4433.1,1.4316
4434.1,1.4965
4435.1,1.4818
4436.1,0.9939
4437.1,0.4365
4438.1,0.1378
4439.1,0.0356
4440.1,0.0294
4441.1,0.024
4442.1,0.0218
4443.1,0.0211
4444.1,0.0203
4445.1,0.0199
4446.1,0.0196
4447.1,0.0192
4448.1,0.0191
4449.1,0.019
4450.1,0.0189
4451.1,0.0186
4452.1,0.0184
4453.1,0.0185
4454.1,0.0185
4455.1,0.0186
4456.1,0.0185
4457.1,0.0185
4458.1,0.0187
4459.1,0.0188
4460.1,0.0191
4461.1,0.0193
4462.1,0.0193
4463.1,0.0191
4464.1,0.0187
4465.1,0.0184
4466.1,0.0182
4467.1,0.0182
4468.1,0.0182
4469.1,0.0183
4470.1,0.0184
4471.1,0.0187
4472.1,0.0187
4473.1,0.0189
4474.1,0.0187
4475.1,0.0183
4476.1,0.0183
4477.1,0.0182
4478.1,0.0183
4479.1,0.0184
4480.1,0.0183
4481.1,0.0186
4482.1,0.0192
4483.1,0.0193
4484.1,0.0193
4485.1,0.0192
4486.1,0.0187
4487.1,0.0182
4488.1,0.0179
4489.1,0.0179
4490.1,0.018
4491.1,0.0183
4492.1,0.0185
4493.1,0.0184
4494.1,0.0185
4495.1,0.0185
4496.1,0.0182
4497.1,0.0179
4498.1,0.018
4499.1,0.018
4500.1,0.018
4501.1,0.0181
4502.1,0.0186
4503.1,0.0201
4504.1,0.021
4505.1,0.022
4506.1,0.0227
4507.1,0.0228
4508.1,0.0226
4509.1,0.022
4510.1,0.0217
4511.1,0.0212
4512.1,0.0206
4513.1,0.0204
4514.1,0.0199
4515.1,0.0196
4516.1,0.0196
4517.1,0.0198
4518.1,0.0197
4519.1,0.0193
4520.1,0.0193
4521.1,0.0192
4522.1,0.0188
4523.1,0.0185
4524.1,0.0184
4525.1,0.0184
4526.1,0.0185
4527.1,0.0185
4528.1,0.0187
4529.1,0.0187
4530.1,0.0185
4531.1,0.0184
4532.1,0.0181
4533.1,0.0183
4534.1,0.0181
4535.1,0.0186
4536.1,0.0188
4537.1,0.019
4538.1,0.0203
4539.1,0.0208
4540.1,0.0211
4541.1,0.0212
4542.1,0.0212
4543.1,0.0203
4544.1,0.0199
4545.1,0.0195
4546.1,0.0191
4547.1,0.0193
4548.1,0.0194
4549.1,0.0193
4550.1,0.0194
4551.1,0.0202
4552.1,0.0211
4553.1,0.0215
4554.1,0.0215
4555.1,0.0212
4556.1,0.0208
4557.1,0.0199
4558.1,0.0193
4559.1,0.0192
4560.1,0.0192
4561.1,0.0189
4562.1,0.0188
4563.1,0.0185
4564.1,0.0183
4565.1,0.0183
4566.1,0.0188
4567.1,0.019
4568.1,0.0189
4569.1,0.0191
4570.1,0.0187
4571.1,0.0186
4572.1,0.0183
4573.1,0.0182
4574.1,0.0184
4575.1,0.0183
4576.1,0.0185
4577.1,0.0187
4578.1,0.0193
4579.1,0.0199
4580.1,0.0204
4581.1,0.0212
4582.1,0.0217
4583.1,0.0217
4584.1,0.021
4585.1,0.0205
4586.1,0.0201
4587.1,0.0194
4588.1,0.019
4589.1,0.0194
4590.1,0.02
4591.1,0.0209
4592.1,0.021
4593.1,0.0212
4594.1,0.021
4595.1,0.0199
4596.1,0.0192
4597.1,0.0191
4598.1,0.0188
4599.1,0.0188
4600.1,0.0183
4601.1,0.0183
4602.1,0.018
4603.1,0.0179
4604.1,0.0182
4605.1,0.0184
4606.1,0.0189
4607.1,0.0192
4608.1,0.0195
4609.1,0.0194
4610.1,0.0192
4611.1,0.0189
4612.1,0.0187
4613.1,0.0185
4614.1,0.0184
4615.1,0.0186
4616.1,0.0189
4617.1,0.019
4618.1,0.0189
4619.1,0.019
4620.1,0.0189
4621.1,0.0187
4622.1,0.0182
4623.1,0.0185
4624.1,0.0181
4625.1,0.0183
4626.1,0.0188
4627.1,0.0192
4628.1,0.0195
4629.1,0.0194
4630.1,0.0195
4631.1,0.0191
4632.1,0.0188
4633.1,0.0186
4634.1,0.0188
4635.1,0.0184
4636.1,0.0184
4637.1,0.018
4638.1,0.0181
4639.1,0.018
4640.1,0.0181
4641.1,0.0179
4642.1,0.0179
4643.1,0.0184
4644.1,0.0188
4645.1,0.0192
4646.1,0.0195
4647.1,0.0197
4648.1,0.0193
4649.1,0.0188
4650.1,0.0188
4651.1,0.0189
4652.1,0.019
4653.1,0.0188
4654.1,0.0188
4655.1,0.0188
4656.1,0.0187
4657.1,0.0186
4658.1,0.0187
4659.1,0.0185
4660.1,0.0189
4661.1,0.0192
4662.1,0.0195
4663.1,0.0193
4664.1,0.0197
4665.1,0.0201
4666.1,0.0203
4667.1,0.0205
4668.1,0.0208
4669.1,0.021
4670.1,0.0203
4671.1,0.0201
4672.1,0.0208
4673.1,0.0215
4674.1,0.0219
4675.1,0.0221
