Wavelength (Å) - Plot 0,Signal Amplitude (V) - Plot 0
3241,0.0138
3242,0.0137
3243,0.0139
3244,0.0137
3245,0.0138
3246,0.0139
3247,0.0138
3248,0.0137
3249,0.0138
3250,0.0138
3251,0.0138
3252,0.0138
3253,0.0138
3254,0.0138
3255,0.0138
3256,0.0138
3257,0.0138
3258,0.0137
3259,0.0137
3260,0.0138
3261,0.0138
3262,0.0138
3263,0.014
3264,0.0138
3265,0.0138
3266,0.0139
3267,0.0136
3268,0.0137
3269,0.0137
3270,0.0139
3271,0.0138
3272,0.0138
3273,0.0138
3274,0.0138
3275,0.0138
3276,0.0138
3277,0.0139
3278,0.0138
3279,0.0139
3280,0.0138
3281,0.0138
3282,0.0138
3283,0.0138
3284,0.0138
3285,0.014
3286,0.0139
3287,0.0138
3288,0.014
3289,0.0138
3290,0.0137
3291,0.0137
3292,0.0138
3293,0.0138
3294,0.0139
3295,0.0138
3296,0.0138
3297,0.0138
3298,0.0139
3299,0.0138
3300,0.0137
3301,0.0139
3302,0.0138
3303,0.0138
3304,0.0139
3305,0.0138
3306,0.0137
3307,0.0138
3308,0.0138
3309,0.0138
3310,0.0138
3311,0.0139
3312,0.0137
3313,0.0137
3314,0.0138
3315,0.0137
3316,0.0139
3317,0.0138
3318,0.0138
3319,0.0139
3320,0.014
3321,0.0139
3322,0.0138
3323,0.0137
3324,0.014
3325,0.0139
3326,0.0137
3327,0.0138
3328,0.0137
3329,0.0139
3330,0.0138
3331,0.0138
3332,0.0138
3333,0.0138
3334,0.0138
3335,0.0138
3336,0.0138
3337,0.0138
3338,0.0138
3339,0.0138
3340,0.0137
3341,0.0139
3342,0.0137
3343,0.0136
3344,0.0138
3345,0.0138
3346,0.0137
3347,0.0138
3348,0.0138
3349,0.0139
3350,0.0138
3351,0.014
3352,0.0138
3353,0.014
3354,0.0139
3355,0.0139
3356,0.0136
3357,0.0138
3358,0.0137
3359,0.0139
3360,0.0138
3361,0.0139
3362,0.0139
3363,0.0138
3364,0.0138
3365,0.0138
3366,0.014
3367,0.0139
3368,0.014
3369,0.0138
3370,0.0138
3371,0.0138
3372,0.0139
3373,0.0139
3374,0.0137
3375,0.0139
3376,0.0138
3377,0.0137
3378,0.0139
3379,0.0139
3380,0.0136
3381,0.0138
3382,0.0137
3383,0.0139
3384,0.0139
3385,0.0139
3386,0.014
3387,0.0139
3388,0.0139
3389,0.0138
3390,0.0139
3391,0.0138
3392,0.0137
3393,0.0139
3394,0.0139
3395,0.0138
3396,0.0139
3397,0.0138
3398,0.0139
3399,0.0139
3400,0.0138
3401,0.0139
3402,0.014
3403,0.014
3404,0.0139
3405,0.0138
3406,0.0138
3407,0.0138
3408,0.014
3409,0.0139
3410,0.0139
3411,0.0139
3412,0.014
3413,0.014
3414,0.0139
3415,0.014
3416,0.0139
3417,0.0141
3418,0.0139
3419,0.014
3420,0.0139
3421,0.0138
3422,0.014
3423,0.0162
3424,0.0183
3425,0.0205
3426,0.0235
3427,0.0256
3428,0.0275
3429,0.028
3430,0.0306
3431,0.0327
3432,0.0334
3433,0.0338
3434,0.0337
3435,0.0332
3436,0.0316
3437,0.028
3438,0.0272
3439,0.0239
3440,0.0213
3441,0.0199
3442,0.0177
3443,0.0164
3444,0.0153
3445,0.0145
3446,0.0143
3447,0.0142
3448,0.0141
3449,0.0143
3450,0.0143
3451,0.0143
3452,0.0144
3453,0.0143
3454,0.0144
3455,0.0145
3456,0.0145
3457,0.0144
3458,0.0144
3459,0.0146
3460,0.0146
3461,0.0146
3462,0.0145
3463,0.0145
3464,0.0147
3465,0.0145
3466,0.0144
3467,0.0146
3468,0.0145
3469,0.0145
3470,0.0147
3471,0.0148
3472,0.0146
3473,0.0146
3474,0.0146
3475,0.0146
3476,0.0147
3477,0.0145
3478,0.0146
3479,0.0147
3480,0.0146
3481,0.0145
3482,0.0147
3483,0.0147
3484,0.0146
3485,0.0146
3486,0.0145
3487,0.0146
3488,0.0146
3489,0.0146
3490,0.0146
3491,0.0145
3492,0.0146
3493,0.0146
3494,0.0146
3495,0.0145
3496,0.0146
3497,0.0148
3498,0.0145
3499,0.0146
3500,0.0146
3501,0.0145
3502,0.0145
3503,0.0146
3504,0.0145
3505,0.0145
3506,0.0146
3507,0.0145
3508,0.0146
3509,0.0145
3510,0.0145
3511,0.0146
3512,0.0147
3513,0.0145
3514,0.0145
3515,0.0145
3516,0.0145
3517,0.0146
3518,0.0145
3519,0.0145
3520,0.0145
3521,0.0145
3522,0.0145
3523,0.0145
3524,0.0145
3525,0.0145
3526,0.0146
3527,0.0145
3528,0.0145
3529,0.0146
3530,0.0147
3531,0.0145
3532,0.0143
3533,0.0145
3534,0.0145
3535,0.0145
3536,0.0145
3537,0.0144
3538,0.0146
3539,0.0145
3540,0.0144
3541,0.0143
3542,0.0144
3543,0.0144
3544,0.0145
3545,0.0145
3546,0.0145
3547,0.0145
3548,0.0145
3549,0.0144
3550,0.0143
3551,0.0146
3552,0.0145
3553,0.0145
3554,0.0144
3555,0.0145
3556,0.0145
3557,0.0146
3558,0.0144
3559,0.0145
3560,0.0147
3561,0.0145
3562,0.0145
3563,0.0146
3564,0.0146
3565,0.0144
3566,0.0145
3567,0.0146
3568,0.0145
3569,0.0146
3570,0.0146
3571,0.0145
3572,0.0147
3573,0.0145
3574,0.0148
3575,0.0146
3576,0.0146
3577,0.0146
3578,0.0146
3579,0.0146
3580,0.0145
3581,0.0145
3582,0.0146
3583,0.0147
3584,0.0147
3585,0.0147
3586,0.0148
3587,0.0147
3588,0.0146
3589,0.0147
3590,0.0146
3591,0.0146
3592,0.0148
3593,0.0148
3594,0.0148
3595,0.0147
3596,0.0147
3597,0.0148
3598,0.0149
3599,0.0146
3600,0.0149
3601,0.0149
3602,0.0148
3603,0.015
3604,0.015
3605,0.0152
3606,0.0151
3607,0.0153
3608,0.0153
3609,0.0155
3610,0.0155
3611,0.0154
3612,0.0154
3613,0.0154
3614,0.0152
3615,0.0153
3616,0.0152
3617,0.0149
3618,0.0149
3619,0.0149
3620,0.0151
3621,0.0149
3622,0.0149
3623,0.015
3624,0.015
3625,0.0149
3626,0.0151
3627,0.015
3628,0.0149
3629,0.015
3630,0.015
3631,0.015
3632,0.0149
3633,0.0149
3634,0.0151
3635,0.015
3636,0.0152
3637,0.0152
3638,0.015
3639,0.0154
3640,0.0154
3641,0.0154
3642,0.0154
3643,0.0154
3644,0.0153
3645,0.0157
3646,0.0156
3647,0.0154
3648,0.0156
3649,0.0156
3650,0.0156
3651,0.0156
3652,0.0156
3653,0.0155
3654,0.0156
3655,0.0156
3656,0.0157
3657,0.0156
3658,0.0157
3659,0.0156
3660,0.0158
3661,0.0156
3662,0.0157
3663,0.0157
3664,0.0157
3665,0.0155
3666,0.0156
3667,0.0156
3668,0.0156
3669,0.0155
3670,0.0156
3671,0.0155
3672,0.0156
3673,0.0155
3674,0.0156
3675,0.0155
3676,0.0156
3677,0.0157
3678,0.0158
3679,0.0159
3680,0.0158
3681,0.0158
3682,0.0159
3683,0.0159
3684,0.0158
3685,0.0158
3686,0.016
3687,0.0157
3688,0.0161
3689,0.016
3690,0.016
3691,0.0162
3692,0.016
3693,0.0161
3694,0.016
3695,0.016
3696,0.0161
3697,0.0161
3698,0.0161
3699,0.0163
3700,0.0163
3701,0.0163
3702,0.0162
3703,0.0164
3704,0.0163
3705,0.0163
3706,0.0165
3707,0.0164
3708,0.0164
3709,0.0166
3710,0.0166
3711,0.0166
3712,0.0167
3713,0.0166
3714,0.0167
3715,0.0169
3716,0.017
3717,0.0172
3718,0.0172
3719,0.0175
3720,0.0177
3721,0.0179
3722,0.0181
3723,0.0184
3724,0.0187
3725,0.019
3726,0.0196
3727,0.0199
3728,0.0208
3729,0.022
3730,0.0234
3731,0.0254
3732,0.0949
3733,0.232
3734,0.46
3735,0.6462
3736,0.901
3737,1.0997
3738,1.3578
3739,1.5192
3740,1.6744
3741,1.8705
3742,1.971
3743,2.016
3744,2.0256
3745,1.9852
3746,1.9046
3747,1.6394
3748,1.41
3749,1.2678
3750,1.0974
3751,0.8472
3752,0.6944
3753,0.4965
3754,0.3816
3755,0.3135
3756,0.2766
3757,0.2495
3758,0.2217
3759,0.1775
3760,0.1406
3761,0.1214
3762,0.1038
3763,0.0787
3764,0.0648
3765,0.0517
3766,0.0349
3767,0.03
3768,0.0206
3769,0.0186
3770,0.0181
3771,0.0177
3772,0.0177
3773,0.0176
3774,0.0174
3775,0.0174
3776,0.0174
3777,0.0172
3778,0.0172
3779,0.0171
3780,0.0171
3781,0.017
3782,0.017
3783,0.017
3784,0.0169
3785,0.0169
3786,0.0168
3787,0.0169
3788,0.017
3789,0.0172
3790,0.017
3791,0.0173
3792,0.0174
3793,0.0173
3794,0.0176
3795,0.0174
3796,0.0175
3797,0.0174
3798,0.0173
3799,0.0172
3800,0.017
3801,0.0168
3802,0.0168
3803,0.0166
3804,0.0164
3805,0.0163
3806,0.0162
3807,0.0162
3808,0.0161
3809,0.0161
3810,0.0161
3811,0.0159
3812,0.0161
3813,0.016
3814,0.0158
3815,0.016
3816,0.0161
3817,0.0159
3818,0.0159
3819,0.0159
3820,0.0158
3821,0.016
3822,0.0158
3823,0.0159
3824,0.0158
3825,0.0159
3826,0.0157
3827,0.0158
3828,0.0159
3829,0.0158
3830,0.0159
3831,0.0157
3832,0.0158
3833,0.0158
3834,0.0159
3835,0.0159
3836,0.0158
3837,0.0158
3838,0.0157
3839,0.0158
3840,0.0157
3841,0.0158
3842,0.0158
3843,0.0159
3844,0.0158
3845,0.0158
3846,0.0159
3847,0.0159
3848,0.016
3849,0.0161
3850,0.0159
3851,0.016
3852,0.0161
3853,0.0161
3854,0.0162
3855,0.0161
3856,0.0162
3857,0.0162
3858,0.0162
3859,0.0163
3860,0.0162
3861,0.0163
3862,0.0164
3863,0.0162
3864,0.0164
3865,0.0162
3866,0.0162
3867,0.0163
3868,0.0163
3869,0.0161
3870,0.0162
3871,0.0162
3872,0.0163
3873,0.0162
3874,0.016
3875,0.0161
3876,0.0162
3877,0.016
3878,0.0161
3879,0.0161
3880,0.0159
3881,0.0162
3882,0.0161
3883,0.016
3884,0.0161
3885,0.0163
3886,0.0162
3887,0.0162
3888,0.0164
3889,0.0162
3890,0.0164
3891,0.0164
3892,0.0161
3893,0.0164
3894,0.0163
3895,0.0164
3896,0.0165
3897,0.0163
3898,0.0161
3899,0.0163
3900,0.0162
3901,0.016
3902,0.016
3903,0.0159
3904,0.0161
3905,0.0159
3906,0.0161
3907,0.0159
3908,0.016
3909,0.0159
3910,0.0159
3911,0.0161
3912,0.0159
3913,0.0162
3914,0.016
3915,0.016
3916,0.0161
3917,0.016
3918,0.0162
3919,0.0161
3920,0.0161
3921,0.0162
3922,0.0162
3923,0.0163
3924,0.0162
3925,0.0163
3926,0.0162
3927,0.0162
3928,0.0162
3929,0.0164
3930,0.0162
3931,0.0159
3932,0.016
3933,0.0159
3934,0.0158
3935,0.0159
3936,0.0158
3937,0.0158
3938,0.0157
3939,0.0159
3940,0.0158
3941,0.0159
3942,0.0158
3943,0.016
3944,0.016
3945,0.0158
3946,0.0159
3947,0.016
3948,0.0159
3949,0.0161
3950,0.0162
3951,0.0161
3952,0.0161
3953,0.0163
3954,0.0161
3955,0.0162
3956,0.0163
3957,0.0162
3958,0.0163
3959,0.0163
3960,0.0163
3961,0.0163
3962,0.0162
3963,0.0163
3964,0.0163
3965,0.0162
3966,0.0162
3967,0.0163
3968,0.0162
3969,0.0163
3970,0.0163
3971,0.0162
3972,0.0161
3973,0.0164
3974,0.0161
3975,0.0162
3976,0.0162
3977,0.0162
3978,0.0162
3979,0.0163
3980,0.0162
3981,0.0162
3982,0.0163
3983,0.0163
3984,0.0162
3985,0.0166
3986,0.0167
3987,0.017
3988,0.0172
3989,0.0179
3990,0.0186
3991,0.0201
3992,0.0212
3993,0.0221
3994,0.0235
3995,0.0242
3996,0.0253
3997,0.0255
3998,0.0257
3999,0.0261
4000,0.026
4001,0.026
4002,0.0253
4003,0.0244
4004,0.023
4005,0.0223
4006,0.0213
4007,0.02
4008,0.0194
4009,0.0185
4010,0.0178
4011,0.0173
4012,0.0166
4013,0.0167
4014,0.0164
4015,0.0163
4016,0.0163
4017,0.0163
4018,0.0163
4019,0.0161
4020,0.0164
4021,0.0163
4022,0.0162
4023,0.0161
4024,0.0161
4025,0.0163
4026,0.0162
4027,0.0162
4028,0.0163
4029,0.016
4030,0.016
4031,0.0162
4032,0.0163
4033,0.0166
4034,0.0173
4035,0.0177
4036,0.0183
4037,0.0187
4038,0.019
4039,0.0192
4040,0.0196
4041,0.0195
4042,0.0197
4043,0.0198
4044,0.0196
4045,0.0192
4046,0.0189
4047,0.0179
4048,0.0177
4049,0.0174
4050,0.0168
4051,0.0166
4052,0.0166
4053,0.0164
4054,0.0161
4055,0.016
4056,0.016
4057,0.0162
4058,0.016
4059,0.0161
4060,0.0161
4061,0.0162
4062,0.0161
4063,0.0162
4064,0.016
4065,0.0162
4066,0.0162
4067,0.0163
4068,0.0166
4069,0.0167
4070,0.0167
4071,0.017
4072,0.017
4073,0.017
4074,0.0173
4075,0.0175
4076,0.0174
4077,0.0173
4078,0.0174
4079,0.0174
4080,0.0174
4081,0.0172
4082,0.017
4083,0.017
4084,0.0168
4085,0.0166
4086,0.0168
4087,0.0168
4088,0.0166
4089,0.0166
4090,0.0166
4091,0.0168
4092,0.0167
4093,0.0167
4094,0.0168
4095,0.0168
4096,0.0168
4097,0.0168
4098,0.0168
4099,0.017
4100,0.017
4101,0.017
4102,0.0171
4103,0.0173
4104,0.0172
4105,0.0172
4106,0.0173
4107,0.0173
4108,0.0175
4109,0.0175
4110,0.0176
4111,0.0177
4112,0.0177
4113,0.0177
4114,0.0182
4115,0.0181
4116,0.0182
4117,0.0187
4118,0.019
4119,0.0192
4120,0.0195
4121,0.0199
4122,0.0207
4123,0.0212
4124,0.0217
4125,0.0238
4126,0.0258
4127,0.032
4128,0.1448
4129,0.3563
4130,0.5673
4131,0.7756
4132,1.0846
4133,1.2584
4134,1.5177
4135,1.6498
4136,1.8084
4137,1.9569
4138,2.0144
4139,2.0548
4140,2.052
4141,1.9079
4142,1.6282
4143,1.3905
4144,1.1804
4145,0.9061
4146,0.725
4147,0.5528
4148,0.3474
4149,0.2818
4150,0.111
4151,0.0402
4152,0.0283
4153,0.0245
4154,0.0229
4155,0.0224
4156,0.022
4157,0.0219
4158,0.0223
4159,0.0271
4160,0.0584
4161,0.0828
4162,0.118
4163,0.141
4164,0.1604
4165,0.1911
4166,0.2054
4167,0.2189
4168,0.2346
4169,0.2457
4170,0.2471
4171,0.2509
4172,0.23
4173,0.2077
4174,0.1798
4175,0.1472
4176,0.1236
4177,0.0964
4178,0.0779
4179,0.0628
4180,0.0408
4181,0.0298
4182,0.0232
4183,0.0202
4184,0.0199
4185,0.0196
4186,0.0193
4187,0.0193
4188,0.0193
4189,0.0192
4190,0.0197
4191,0.0205
4192,0.021
4193,0.0217
4194,0.0222
4195,0.0226
4196,0.0232
4197,0.0236
4198,0.0236
4199,0.024
4200,0.0239
4201,0.0242
4202,0.0238
4203,0.0232
4204,0.0225
4205,0.0219
4206,0.0214
4207,0.0208
4208,0.0203
4209,0.0197
4210,0.0192
4211,0.0192
4212,0.0187
4213,0.0187
4214,0.0186
4215,0.0186
4216,0.0184
4217,0.0186
4218,0.0186
4219,0.0188
4220,0.0186
4221,0.0187
4222,0.0185
4223,0.0186
4224,0.0186
4225,0.0185
4226,0.0186
4227,0.0187
4228,0.0188
4229,0.0189
4230,0.0186
4231,0.0185
4232,0.0186
4233,0.0186
4234,0.0185
4235,0.0185
4236,0.0184
4237,0.0184
4238,0.0186
4239,0.0184
4240,0.0192
4241,0.0218
4242,0.0261
4243,0.034
4244,0.0375
4245,0.0429
4246,0.0464
4247,0.0498
4248,0.0549
4249,0.0581
4250,0.06
4251,0.0622
4252,0.063
4253,0.0631
4254,0.059
4255,0.0544
4256,0.0471
4257,0.0435
4258,0.0396
4259,0.0347
4260,0.031
4261,0.0281
4262,0.0241
4263,0.0222
4264,0.0208
4265,0.0204
4266,0.0206
4267,0.0211
4268,0.0213
4269,0.0218
4270,0.0224
4271,0.0227
4272,0.0229
4273,0.0237
4274,0.024
4275,0.0268
4276,0.0289
4277,0.0302
4278,0.0314
4279,0.032
4280,0.0322
4281,0.0333
4282,0.0351
4283,0.039
4284,0.0438
4285,0.0495
4286,0.058
4287,0.0618
4288,0.0654
4289,0.0693
4290,0.0711
4291,0.0731
4292,0.0741
4293,0.0749
4294,0.0741
4295,0.0712
4296,0.0686
4297,0.0609
4298,0.0547
4299,0.0488
4300,0.0405
4301,0.0362
4302,0.0303
4303,0.0274
4304,0.0243
4305,0.021
4306,0.0197
4307,0.0189
4308,0.0184
4309,0.0184
4310,0.0184
4311,0.0183
4312,0.0185
4313,0.0184
4314,0.0187
4315,0.0191
4316,0.0196
4317,0.0199
4318,0.0201
4319,0.0202
4320,0.0204
4321,0.02
4322,0.0198
4323,0.0199
4324,0.0193
4325,0.0194
4326,0.019
4327,0.0188
4328,0.0187
4329,0.0186
4330,0.0185
4331,0.0185
4332,0.0186
4333,0.0187
4334,0.0187
4335,0.0188
4336,0.0192
4337,0.0196
4338,0.0199
4339,0.02
4340,0.0203
4341,0.0206
4342,0.0209
4343,0.0221
4344,0.0235
4345,0.0261
4346,0.0273
4347,0.0279
4348,0.0299
4349,0.0311
4350,0.0325
4351,0.035
4352,0.0361
4353,0.0375
4354,0.0387
4355,0.0396
4356,0.0403
4357,0.0414
4358,0.0427
4359,0.0436
4360,0.0442
4361,0.0446
4362,0.0443
4363,0.0439
4364,0.0428
4365,0.0415
4366,0.0405
4367,0.0393
4368,0.0376
4369,0.0358
4370,0.0317
4371,0.0297
4372,0.0276
4373,0.0256
4374,0.0239
4375,0.0228
4376,0.0219
4377,0.0209
4378,0.0205
4379,0.0201
4380,0.0201
4381,0.0202
4382,0.0204
4383,0.0207
4384,0.0219
4385,0.0241
4386,0.0257
4387,0.0267
4388,0.0286
4389,0.0296
4390,0.0305
4391,0.0313
4392,0.0319
4393,0.0324
4394,0.0325
4395,0.0326
4396,0.0312
4397,0.0297
4398,0.0283
4399,0.0275
4400,0.0252
4401,0.0244
4402,0.0233
4403,0.0226
4404,0.0222
4405,0.0215
4406,0.0213
4407,0.0214
4408,0.0218
4409,0.0217
4410,0.0221
4411,0.0221
4412,0.0223
4413,0.0227
4414,0.0224
4415,0.0229
4416,0.0238
4417,0.0253
4418,0.0272
4419,0.0302
4420,0.0322
4421,0.0343
4422,0.0409
4423,0.0465
4424,0.0522
4425,0.0604
4426,0.0658
4427,0.0734
4428,0.0775
4429,0.0815
4430,0.0965
4431,0.1105
4432,0.1256
4433,0.1465
4434,0.1563
4435,0.1688
4436,0.1782
4437,0.1861
4438,0.2019
4439,0.2208
4440,0.4758
4441,1.1163
4442,2.278
4443,3.3858
4444,4.2427
4445,5.4944
4446,6.1553
4447,6.9657
4448,7.8174
4449,8.2986
4450,8.5765
4451,8.8522
4452,8.7165
4453,8.1377
4454,6.8871
4455,5.9623
4456,4.625
4457,3.7584
4458,3.0538
4459,2.2312
4460,1.3461
4461,0.8523
4462,0.4142
4463,0.1133
4464,0.0659
4465,0.0508
4466,0.042
4467,0.039
4468,0.0357
4469,0.0342
4470,0.0324
4471,0.0305
4472,0.0295
4473,0.0285
4474,0.0273
4475,0.0275
4476,0.0265
4477,0.0258
4478,0.0254
4479,0.0253
4480,0.0249
4481,0.0247
4482,0.0244
4483,0.0238
4484,0.0236
4485,0.0233
4486,0.0232
4487,0.0228
4488,0.0229
4489,0.0227
4490,0.0224
4491,0.0223
4492,0.0223
4493,0.0221
4494,0.0219
4495,0.0221
4496,0.0218
4497,0.0215
4498,0.0215
4499,0.0216
4500,0.0213
4501,0.0212
4502,0.0214
4503,0.0212
4504,0.0211
4505,0.021
4506,0.021
4507,0.0207
4508,0.021
4509,0.0209
4510,0.0212
4511,0.021
4512,0.021
4513,0.0212
4514,0.0208
4515,0.0209
4516,0.021
4517,0.0208
4518,0.0207
4519,0.0205
4520,0.0208
4521,0.0207
4522,0.0207
4523,0.0205
4524,0.0204
4525,0.0202
4526,0.0205
4527,0.0204
4528,0.0204
4529,0.0204
4530,0.0203
4531,0.0203
4532,0.02
4533,0.0204
4534,0.0202
4535,0.02
4536,0.0203
4537,0.0203
4538,0.0201
4539,0.0204
4540,0.0202
4541,0.0204
4542,0.02
4543,0.0201
4544,0.0202
4545,0.0202
4546,0.0201
4547,0.0201
4548,0.0202
4549,0.02
4550,0.0202
4551,0.02
4552,0.02
4553,0.0202
4554,0.0201
4555,0.02
4556,0.02
4557,0.0201
4558,0.02
4559,0.0201
4560,0.0202
4561,0.0203
4562,0.0203
4563,0.0203
4564,0.0203
4565,0.02
4566,0.0202
4567,0.0203
4568,0.0204
4569,0.0203
4570,0.0203
4571,0.0205
4572,0.0205
4573,0.0205
4574,0.0208
4575,0.0205
4576,0.0208
4577,0.0207
4578,0.0208
4579,0.0208
4580,0.0208
4581,0.0207
4582,0.0207
4583,0.0203
4584,0.0205
4585,0.0203
4586,0.0205
4587,0.0205
4588,0.0203
4589,0.0202
4590,0.0204
4591,0.0202
4592,0.0205
4593,0.0208
4594,0.0212
4595,0.0225
4596,0.0234
4597,0.0241
4598,0.0254
4599,0.0262
4600,0.0267
4601,0.0275
4602,0.0278
4603,0.0283
4604,0.0285
4605,0.0286
4606,0.0289
4607,0.0284
4608,0.0278
4609,0.0273
4610,0.0259
4611,0.0253
4612,0.0249
4613,0.0242
4614,0.0235
4615,0.0231
4616,0.023
4617,0.0227
4618,0.0223
4619,0.0222
4620,0.0219
4621,0.0215
4622,0.0214
4623,0.0211
4624,0.0208
4625,0.0207
4626,0.0206
4627,0.0205
4628,0.0204
4629,0.0204
4630,0.0204
4631,0.0204
4632,0.0204
4633,0.0203
4634,0.0202
4635,0.0203
4636,0.0204
4637,0.0204
4638,0.0205
4639,0.0204
4640,0.0203
4641,0.0205
4642,0.0204
4643,0.0204
4644,0.0203
4645,0.0204
4646,0.0203
4647,0.0203
4648,0.0204
4649,0.0204
4650,0.0202
4651,0.0201
4652,0.0204
4653,0.0204
4654,0.0205
4655,0.0206
4656,0.0206
4657,0.0209
4658,0.0209
4659,0.0212
4660,0.0211
4661,0.0214
4662,0.0214
4663,0.0217
4664,0.0215
4665,0.0217
4666,0.0214
4667,0.0215
4668,0.0218
4669,0.0214
4670,0.0215
4671,0.0213
4672,0.0213
4673,0.0213
4674,0.0213
4675,0.0211
4676,0.021
4677,0.0208
4678,0.0211
4679,0.0209
4680,0.0212
4681,0.0212
4682,0.0216
4683,0.0218
4684,0.0223
4685,0.0224
4686,0.0224
4687,0.0225
4688,0.0224
4689,0.0227
4690,0.0228
4691,0.0224
4692,0.0224
4693,0.0222
4694,0.0217
4695,0.0213
4696,0.0211
4697,0.0208
4698,0.0202
4699,0.0203
4700,0.02
4701,0.0199
4702,0.0197
4703,0.0197
4704,0.0196
4705,0.0196
4706,0.0199
4707,0.0195
4708,0.0195
4709,0.0195
4710,0.0194
4711,0.0193
4712,0.0194
4713,0.0198
4714,0.0198
4715,0.0198
4716,0.0198
4717,0.0202
4718,0.0202
4719,0.0201
4720,0.0205
4721,0.0204
4722,0.0202
4723,0.0202
4724,0.0203
4725,0.0198
4726,0.0197
4727,0.0196
4728,0.0192
4729,0.0191
4730,0.0188
4731,0.0187
4732,0.0186
4733,0.0184
4734,0.0185
4735,0.0183
4736,0.0182
4737,0.0184
4738,0.0182
4739,0.0178
4740,0.0178
4741,0.0175
4742,0.0176
4743,0.0175
4744,0.0174
4745,0.0171
4746,0.0172
4747,0.0172
4748,0.0169
4749,0.017
4750,0.017
4751,0.0169
4752,0.0168
4753,0.017
4754,0.0169
4755,0.0169
4756,0.017
4757,0.0168
4758,0.0168
4759,0.0169
4760,0.0169
4761,0.0169
4762,0.0168
4763,0.0169
4764,0.0168
4765,0.0166
4766,0.0167
4767,0.0167
4768,0.0167
4769,0.0167
4770,0.0166
4771,0.0167
4772,0.0167
4773,0.0167
4774,0.0165
4775,0.0167
4776,0.0167
4777,0.0166
4778,0.0167
4779,0.0166
4780,0.0166
4781,0.0166
4782,0.0166
4783,0.0165
4784,0.0166
4785,0.017
4786,0.0174
4787,0.0178
4788,0.0181
4789,0.0184
4790,0.0185
4791,0.0188
4792,0.0191
4793,0.0189
4794,0.019
4795,0.019
4796,0.019
4797,0.0189
4798,0.0186
4799,0.0183
4800,0.0177
4801,0.0176
4802,0.0171
4803,0.0171
4804,0.0169
4805,0.0168
4806,0.0165
4807,0.0165
4808,0.0164
4809,0.0167
4810,0.0165
4811,0.0162
4812,0.0164
4813,0.0163
4814,0.0163
4815,0.0163
4816,0.0164
4817,0.0162
4818,0.0163
4819,0.0164
4820,0.0163
4821,0.0164
4822,0.0163
4823,0.0165
4824,0.0162
4825,0.0163
4826,0.0163
4827,0.0162
4828,0.0162
4829,0.0163
4830,0.0161
4831,0.0162
4832,0.0163
4833,0.0162
4834,0.0161
4835,0.0161
4836,0.0162
4837,0.0163
4838,0.0161
4839,0.0162
4840,0.0162
4841,0.0162
4842,0.0161
4843,0.0163
4844,0.0162
4845,0.0164
4846,0.0162
4847,0.0163
4848,0.0161
4849,0.0162
4850,0.0159
4851,0.0163
4852,0.0162
4853,0.0163
4854,0.0161
4855,0.0162
4856,0.0161
4857,0.0161
4858,0.0162
4859,0.0161
4860,0.0161
4861,0.0162
4862,0.0162
4863,0.0163
4864,0.016
4865,0.0162
4866,0.016
4867,0.016
4868,0.0161
4869,0.016
4870,0.0161
4871,0.016
4872,0.0159
4873,0.0158
4874,0.016
4875,0.016
4876,0.016
4877,0.0158
4878,0.016
4879,0.0159
4880,0.016
4881,0.0158
4882,0.016
4883,0.0158
4884,0.0159
4885,0.016
4886,0.0161
4887,0.016
4888,0.0159
4889,0.0159
4890,0.016
4891,0.0159
4892,0.0159
4893,0.0161
4894,0.0161
4895,0.0158
4896,0.0161
4897,0.0159
4898,0.0158
4899,0.0159
4900,0.0158
4901,0.0161
4902,0.0159
4903,0.0158
4904,0.0158
4905,0.016
4906,0.0158
4907,0.0159
4908,0.0158
4909,0.0159
4910,0.0159
4911,0.0159
4912,0.0159
4913,0.0159
4914,0.0159
4915,0.016
4916,0.0158
4917,0.0159
